 Ni Density=8.902
 Energy(eV), Delta, Beta
  8100.  2.3771885E-05  4.97758435E-07
  8106.7168  2.37031545E-05  4.96162215E-07
  8113.43896  2.36345859E-05  4.94571168E-07
  8120.1665  2.3566181E-05  4.92985293E-07
  8126.90039  2.34979343E-05  4.91404364E-07
  8133.63965  2.34298186E-05  4.89827755E-07
  8140.38428  2.33618957E-05  4.88257058E-07
  8147.13379  2.32941384E-05  4.86691476E-07
  8153.88965  2.32265375E-05  4.85130784E-07
  8160.65088  2.31590984E-05  4.83575207E-07
  8167.41797  2.30918176E-05  4.82024632E-07
  8174.19043  2.30246969E-05  4.80478946E-07
  8180.96924  2.29372872E-05  4.78936727E-07
  8187.75244  2.28010904E-05  4.77398828E-07
  8194.54199  2.26652774E-05  4.75865761E-07
  8201.33691  2.252985E-05  4.74337696E-07
  8208.1377  2.239481E-05  4.72814463E-07
  8214.94434  2.22601539E-05  4.71296204E-07
  8221.75586  2.2125887E-05  4.69782862E-07
  8228.57422  2.19918838E-05  4.68273413E-07
  8235.39648  2.18583864E-05  4.66769905E-07
  8242.22656  2.17252618E-05  4.65270944E-07
  8249.06055  2.15925229E-05  4.63776928E-07
  8255.90137  2.14601605E-05  4.62287744E-07
  8262.74707  2.13281819E-05  4.60803335E-07
  8269.59863  2.11965798E-05  4.59323644E-07
  8276.45605  2.10652433E-05  4.57847932E-07
  8283.31934  2.09343943E-05  4.56377762E-07
  8290.1875  2.08039255E-05  4.54912396E-07
  8297.06152  2.06738277E-05  4.53451719E-07
  8303.94238  2.05441011E-05  4.51995646E-07
  8310.82812  2.04147491E-05  4.50544263E-07
  8317.71973  1.88160957E-05  4.49097456E-07
  8324.61719  1.71216325E-05  4.47654458E-07
  8331.51953  1.54346399E-05  4.46216973E-07
  8338.42871  1.54650534E-05  3.47427749E-06
  8345.34277  1.58601852E-05  3.46432194E-06
  8352.2627  1.62539654E-05  3.45439503E-06
  8359.18848  1.66463942E-05  3.44449631E-06
  8366.12012  1.70374806E-05  3.43462557E-06
  8373.05762  1.74272245E-05  3.42478324E-06
  8380.  1.78161154E-05  3.41496548E-06
  8386.9502  1.82031799E-05  3.40517863E-06
  8393.9043  1.85889239E-05  3.39542089E-06
  8400.86523  1.89733346E-05  3.38569066E-06
  8407.83105  1.93564247E-05  3.37598954E-06
  8414.80273  1.97381923E-05  3.36631547E-06
  8421.78027  2.01186413E-05  3.35666914E-06
  8428.76367  2.04982534E-05  3.347046E-06
  8435.75293  2.08760739E-05  3.33745493E-06
  8442.74902  2.12525829E-05  3.32789023E-06
  8449.74902  2.14135871E-05  3.31835508E-06
  8456.75586  2.14191095E-05  3.30884563E-06
  8463.76855  2.14245611E-05  3.2993637E-06
  8470.78711  2.14299307E-05  3.28990859E-06
  8477.81152  2.14352731E-05  3.28047622E-06
  8484.84082  2.14404936E-05  3.27107591E-06
  8491.87695  2.14456377E-05  3.2617022E-06
  8498.91797  2.14507072E-05  3.25235578E-06
  8505.96582  2.14556967E-05  3.24303574E-06
  8513.01855  2.14606152E-05  3.23374297E-06
  8520.07812  2.14654556E-05  3.22447613E-06
  8527.14355  2.1470265E-05  3.21523089E-06
  8534.21484  2.1474958E-05  3.20601725E-06
  8541.29102  2.14795746E-05  3.19683022E-06
  8548.37305  2.1484122E-05  3.18767002E-06
  8555.46191  2.14885877E-05  3.17853528E-06
  8562.55664  2.14929823E-05  3.16942692E-06
  8569.65723  2.14973024E-05  3.16034425E-06
  8576.7627  2.15016007E-05  3.15128386E-06
  8583.875  2.150195E-05  3.14224576E-06
  8590.99219  2.14889606E-05  3.13320811E-06
  8598.11719  2.14759475E-05  3.12419525E-06
  8605.24707  2.14629235E-05  3.11520853E-06
  8612.38184  2.14498887E-05  3.10624887E-06
  8619.52344  2.14368338E-05  3.09731422E-06
  8626.6709  2.14237643E-05  3.08840549E-06
  8633.82422  2.14107022E-05  3.07951768E-06
  8640.9834  2.13976036E-05  3.07066034E-06
  8648.14941  2.13844833E-05  3.0618271E-06
  8655.32031  2.1371352E-05  3.05302069E-06
  8662.49805  2.13582025E-05  3.04423861E-06
  8669.68066  2.13450421E-05  3.03548291E-06
  8676.87012  2.13318908E-05  3.02674744E-06
  8684.06445  2.13187013E-05  3.01804198E-06
  8691.26562  2.13054936E-05  3.00936108E-06
  8698.47266  2.12922714E-05  3.00070519E-06
  8705.68555  2.12790346E-05  2.99207431E-06
  8712.90527  2.12657797E-05  2.98346708E-06
  8720.12988  2.12525156E-05  2.97488646E-06
  8727.36035  2.12336818E-05  2.96630333E-06
  8734.59668  2.12139967E-05  2.95773657E-06
  8741.83984  2.11942988E-05  2.94919869E-06
  8749.08887  2.11746083E-05  2.94068536E-06
  8756.34375  2.1154925E-05  2.93219728E-06
  8763.60547  2.11352472E-05  2.92373284E-06
  8770.87109  2.11155857E-05  2.91529432E-06
  8778.14551  2.10959333E-05  2.90687376E-06
  8785.42383  2.10762828E-05  2.89848322E-06
  8792.70898  2.10566359E-05  2.89011655E-06
  8800.  2.10369944E-05  2.88177398E-06